[CFLP-PROBLEMFILE]
generated at:  Tue Mar 19 16:57:35 2024
#customers: 100 ; #depot sites: 100 ; ratio: 10.00

[DEPOTS]
capacity fixcost varcost xcoord ycoord name
117 836 0 327 910 Depot0
340 1399 0 442 53 Depot1
288 1240 0 364 132 Depot2
113 761 0 677 327 Depot3
211 1131 0 13 850 Depot4
295 1205 0 978 776 Depot5
320 1317 0 513 367 Depot6
34 420 0 464 967 Depot7
235 1121 0 432 475 Depot8
66 580 0 321 609 Depot9
75 608 0 761 809 Depot10
305 1345 0 720 830 Depot11
284 1267 0 330 84 Depot12
288 1325 0 323 957 Depot13
290 1336 0 388 598 Depot14
318 1369 0 801 122 Depot15
310 1286 0 531 320 Depot16
308 1340 0 248 970 Depot17
62 555 0 337 660 Depot18
154 971 0 330 521 Depot19
239 1195 0 479 266 Depot20
141 901 0 716 923 Depot21
196 1106 0 930 852 Depot22
342 1353 0 844 587 Depot23
98 768 0 862 195 Depot24
248 1207 0 393 467 Depot25
75 630 0 926 555 Depot26
276 1202 0 999 700 Depot27
246 1106 0 438 133 Depot28
211 1080 0 131 573 Depot29
128 929 0 48 454 Depot30
53 515 0 858 674 Depot31
162 966 0 414 667 Depot32
124 829 0 350 669 Depot33
36 469 0 783 877 Depot34
207 1080 0 832 621 Depot35
130 795 0 165 276 Depot36
276 1246 0 936 147 Depot37
220 1130 0 161 524 Depot38
38 502 0 502 297 Depot39
218 1091 0 442 369 Depot40
45 538 0 712 132 Depot41
58 609 0 587 654 Depot42
60 586 0 615 627 Depot43
152 944 0 432 624 Depot44
216 1135 0 533 706 Depot45
218 1044 0 646 199 Depot46
145 881 0 260 453 Depot47
337 1400 0 482 192 Depot48
92 741 0 559 937 Depot49
218 1082 0 124 250 Depot50
318 1280 0 8 217 Depot51
145 911 0 564 950 Depot52
241 1170 0 725 293 Depot53
222 1111 0 307 239 Depot54
203 1003 0 321 326 Depot55
342 1328 0 148 856 Depot56
239 1186 0 20 569 Depot57
36 434 0 278 812 Depot58
201 1115 0 716 781 Depot59
167 960 0 590 481 Depot60
295 1271 0 788 187 Depot61
248 1242 0 645 926 Depot62
32 430 0 271 546 Depot63
207 1064 0 368 589 Depot64
222 1163 0 57 209 Depot65
194 1055 0 983 338 Depot66
314 1301 0 481 322 Depot67
218 1093 0 443 919 Depot68
308 1315 0 569 660 Depot69
141 933 0 410 130 Depot70
139 830 0 647 635 Depot71
261 1248 0 636 57 Depot72
331 1249 0 374 51 Depot73
73 603 0 90 792 Depot74
337 1331 0 535 885 Depot75
96 735 0 361 853 Depot76
132 918 0 777 348 Depot77
137 850 0 985 434 Depot78
103 775 0 638 738 Depot79
143 905 0 708 250 Depot80
177 995 0 876 342 Depot81
169 1011 0 645 93 Depot82
241 1167 0 621 714 Depot83
316 1394 0 117 485 Depot84
239 1165 0 361 916 Depot85
90 736 0 880 94 Depot86
150 972 0 280 126 Depot87
252 1130 0 447 53 Depot88
286 1263 0 155 929 Depot89
51 506 0 595 923 Depot90
209 1034 0 349 991 Depot91
156 909 0 543 498 Depot92
263 1150 0 269 565 Depot93
150 943 0 748 349 Depot94
26 420 0 640 443 Depot95
30 479 0 548 5 Depot96
38 460 0 86 366 Depot97
318 1236 0 167 361 Depot98
295 1210 0 528 758 Depot99

[CUSTOMERS]
demand xcoord ycoord name
29 732 942 Customer0
13 654 280 Customer1
31 732 561 Customer2
34 44 194 Customer3
6 766 843 Customer4
20 78 960 Customer5
6 853 979 Customer6
31 967 880 Customer7
9 599 702 Customer8
29 734 691 Customer9
34 37 13 Customer10
9 540 19 Customer11
29 792 499 Customer12
15 569 289 Customer13
16 426 567 Customer14
13 745 663 Customer15
31 923 221 Customer16
16 781 895 Customer17
8 272 226 Customer18
9 275 970 Customer19
15 180 647 Customer20
12 739 730 Customer21
32 94 887 Customer22
11 459 397 Customer23
31 704 125 Customer24
31 21 981 Customer25
28 283 598 Customer26
6 132 745 Customer27
7 750 3 Customer28
26 812 82 Customer29
18 234 49 Customer30
34 713 869 Customer31
35 124 900 Customer32
5 20 401 Customer33
26 340 898 Customer34
35 793 670 Customer35
13 541 593 Customer36
15 478 601 Customer37
28 134 893 Customer38
8 499 557 Customer39
6 455 623 Customer40
5 388 345 Customer41
13 997 496 Customer42
13 852 75 Customer43
21 641 918 Customer44
10 728 446 Customer45
9 926 355 Customer46
28 289 551 Customer47
14 473 606 Customer48
12 483 524 Customer49
15 100 185 Customer50
20 963 931 Customer51
35 42 200 Customer52
35 643 955 Customer53
23 17 62 Customer54
24 776 219 Customer55
8 815 284 Customer56
14 797 600 Customer57
26 321 101 Customer58
19 13 787 Customer59
29 699 132 Customer60
7 162 544 Customer61
12 403 203 Customer62
34 98 922 Customer63
30 819 666 Customer64
26 392 125 Customer65
34 278 154 Customer66
18 515 31 Customer67
10 823 152 Customer68
5 259 119 Customer69
31 585 149 Customer70
17 713 859 Customer71
8 901 416 Customer72
9 448 36 Customer73
31 982 125 Customer74
18 286 993 Customer75
13 273 109 Customer76
10 365 98 Customer77
6 735 693 Customer78
26 483 594 Customer79
19 296 107 Customer80
33 16 856 Customer81
5 56 588 Customer82
26 986 138 Customer83
11 206 169 Customer84
12 660 302 Customer85
23 293 382 Customer86
25 919 649 Customer87
22 317 687 Customer88
29 764 544 Customer89
29 437 252 Customer90
18 131 910 Customer91
7 108 943 Customer92
11 411 315 Customer93
26 149 421 Customer94
15 342 434 Customer95
27 197 467 Customer96
25 561 734 Customer97
8 273 533 Customer98
13 825 928 Customer99

[COSTMATRIX]
c= d_eucli(a,b) * 0.01
[MATRIX]
Dim 100 100
117.8160 121.5636 275.7997 209.9345 43.4917 59.3539 36.9176 83.4407 49.9552 153.4015 46.2825 10.1377 274.7768 61.3912 77.8383 106.9767 202.6378 77.5695 38.8267 52.3894 108.2689 2.9807 69.5983 40.9473 235.0505 180.9046 121.2128 21.6211 60.2536 183.3621 151.2429 100.6882 147.1453 23.4762 21.4811 117.6755 113.7069 123.1135 198.1413 54.7825 38.5324 40.5123 41.9175 43.6835 91.8072 30.8702 67.3165 190.2981 110.6797 20.7687 138.1734 204.9196 58.8666 227.1632 188.9410 177.7260 47.2239 112.5301 122.7839 30.7407 139.8886 52.9952 10.6151 206.6285 152.1166 259.0772 222.3863 120.3985 28.9914 16.2860 270.7896 54.1535 71.2153 86.4209 204.3801 36.9145 49.5984 59.5702 34.0509 58.4000 131.5591 203.6226 42.6723 65.9319 84.2828 44.6292 197.9882 233.2059 205.3846 167.3725 40.1103 69.5019 33.7787 65.6782 154.2361 76.1115 257.8217 216.3753 64.8339 35.7138 
205.8446 40.3781 100.9306 17.7908 51.4666 118.4892 9.9408 220.9648 26.5933 135.7528 183.5024 49.8551 109.8147 113.0377 66.3335 28.0550 40.0956 128.0936 39.5890 36.3423 26.3339 77.5179 203.2340 39.7143 69.6562 99.5337 108.3021 32.6118 18.2893 155.8652 113.4874 150.8512 159.3823 24.6849 158.8023 134.6318 63.5721 46.7685 154.0216 12.2358 13.7954 7.9480 49.3940 45.3940 85.9770 44.2851 7.3255 120.4862 27.0486 79.6599 79.6273 129.8129 236.6062 25.2631 80.3652 80.6789 61.3351 97.5467 169.3796 95.9161 61.1735 11.4177 77.5275 158.5454 126.3128 156.3139 113.5849 32.0446 67.2935 19.4695 88.7900 60.3617 17.8980 32.5548 236.1378 110.9866 83.6637 14.0545 21.9043 119.1526 11.7370 76.0634 9.3608 113.1657 63.2279 84.0296 67.3205 101.1163 67.5862 237.4110 187.2533 139.2584 17.1243 52.6910 30.3176 24.5400 79.5749 143.6184 39.4952 64.2626 
155.0418 76.0432 175.2158 81.7281 46.4945 65.3425 17.5542 150.8079 28.0875 120.0001 84.8945 24.2341 180.9035 85.3943 55.3575 57.7706 97.2837 101.3871 32.5774 36.3587 58.2946 43.4824 112.6314 12.6476 120.4046 109.0553 54.3460 18.0609 36.3475 156.2911 124.6173 57.5444 117.3205 19.8487 83.2232 40.8167 82.4977 69.2298 160.2153 28.0110 20.8679 21.4733 22.3940 17.4631 64.3742 24.6223 33.4868 135.5755 62.4000 49.6668 102.4386 160.3137 148.3046 93.8320 122.6375 113.6257 52.3423 99.6863 134.8789 41.9104 47.2656 26.4718 45.0270 156.8229 109.5226 197.9297 114.1560 62.3855 46.0092 9.5355 166.7803 19.1588 41.0449 56.0798 211.5111 68.2542 61.3767 21.7702 16.9852 52.1071 59.2657 86.4934 23.8009 49.1462 68.1646 61.6181 112.6749 156.8297 128.1467 198.4653 112.2465 103.6508 13.9456 50.9319 55.2768 22.4439 158.1269 168.6974 47.9483 36.8671 
223.2708 54.8910 101.0448 219.9193 39.4039 220.0982 29.9934 272.7170 43.1160 144.6963 321.1721 83.5340 88.8631 121.8615 84.8984 98.8541 155.9411 128.3786 44.0367 39.0982 66.1378 118.9771 353.1559 98.0451 253.5802 137.3583 266.8453 64.8461 27.9086 101.1029 46.8055 321.2948 210.1834 28.2516 261.6342 313.6892 19.0018 133.9856 98.0356 37.5551 26.0865 33.5436 92.5148 93.1593 121.6268 70.8001 54.1819 94.4298 61.3206 108.4838 14.6479 8.5440 321.1497 240.8554 61.3691 73.6425 53.6096 52.6074 171.8126 169.5321 178.8821 52.0823 113.6537 142.4081 153.2648 5.1609 322.9923 81.9649 82.7542 35.0992 115.1816 126.9992 48.6116 32.3686 185.9277 152.5825 95.0664 74.9003 58.2674 209.4206 126.6079 278.8701 30.4714 201.9531 33.0018 94.6231 193.6507 61.4003 93.9300 215.5670 265.0038 153.6059 40.9016 47.7286 187.4239 96.8885 145.3335 44.2634 16.5926 96.6165 
128.7842 111.0017 253.2009 178.0305 45.1820 44.4671 32.3436 101.2044 44.7274 145.8043 11.6843 4.3022 253.8415 68.6150 72.0727 93.8404 177.7449 85.3346 37.3121 48.7813 96.6654 11.3208 52.5590 29.4381 203.0725 164.1844 92.2488 16.4030 54.7472 179.4047 146.9890 65.4224 137.7418 22.5462 9.8834 81.0611 107.4126 107.4691 191.5057 48.5180 34.4492 35.6524 33.8405 34.2611 83.8731 27.0292 58.9576 178.8795 99.4352 27.2812 131.0946 196.6154 80.0062 193.0341 174.4815 163.7134 49.4509 111.2619 127.1357 15.1334 116.7300 45.9458 17.6077 196.2698 141.6432 247.2923 186.8807 106.8942 33.1821 13.4441 247.0498 40.7380 63.7342 79.5331 210.1555 42.2617 52.6660 49.5122 27.8365 43.0447 113.2076 169.2681 37.9849 50.4601 81.5311 49.3832 174.2540 216.5475 187.4344 178.9366 54.7486 79.6473 28.7558 62.6414 128.5252 62.9064 233.7907 207.6549 61.5077 32.8540 
73.6514 127.0510 271.5607 296.3057 7.6662 183.7233 44.1265 119.6797 54.0406 123.8032 237.8275 58.9527 264.3426 36.7528 76.2554 143.8820 243.0702 27.2470 31.7068 45.5568 120.2283 76.6886 274.8217 93.7188 339.5711 181.3630 263.1298 57.4197 63.1371 101.5592 91.2399 282.4653 156.0329 19.9164 184.5659 289.3459 89.6364 177.3006 124.2724 62.9588 41.6461 52.1426 77.2070 82.1429 102.4946 52.1096 85.4642 150.8296 121.4890 57.7859 106.7233 149.2580 170.1360 325.2361 173.9934 162.9536 10.0291 55.3390 64.6893 125.9006 203.3281 73.4710 68.1622 155.3041 141.2681 195.3363 373.3672 135.8318 36.7296 28.7698 277.1206 111.3968 84.9197 86.0382 52.2127 83.3604 39.3318 92.9056 62.9092 156.6236 180.3499 333.0758 51.7972 154.9925 52.4258 34.3680 271.4741 214.5286 215.4215 24.0717 150.3135 49.0981 45.8844 48.2631 235.7586 114.5447 287.3852 148.5135 48.4461 64.1236 
153.8468 131.7046 303.1873 229.6146 50.9909 47.6798 42.0062 120.6474 59.1031 187.9245 65.7212 17.9752 300.6160 79.5685 96.1846 111.6149 227.3729 96.8107 48.5315 62.5674 120.7705 17.7604 47.5262 43.1314 243.0560 213.3701 120.4667 18.8935 65.9614 215.3641 172.9921 103.7139 188.5019 29.5427 32.1644 125.5154 127.8736 125.4195 231.8916 61.3619 44.1325 42.9328 54.5971 55.2382 115.6461 42.0629 72.6300 221.9475 121.8089 35.6382 154.6443 227.5670 101.6580 244.2438 211.5145 202.1468 57.2519 129.9807 155.6777 45.7474 163.3225 55.6264 25.7575 246.6378 186.7063 287.9453 222.3769 135.9010 41.4367 21.3552 296.8645 68.1639 75.7754 93.9897 243.5302 59.6884 66.0241 63.5560 33.6455 83.9707 141.2233 210.3470 45.5044 91.5735 97.5057 59.5221 203.6447 256.8971 222.4408 202.9387 76.5622 90.7457 40.0569 78.7443 166.0594 86.5157 275.5721 245.4661 73.8656 51.0928 
185.8038 127.3439 297.8442 212.3052 57.2683 20.9160 41.1026 158.2452 60.3906 203.1567 74.0833 22.6809 295.6557 97.2880 103.0436 100.8753 220.0118 115.9377 53.3846 65.8078 117.6463 30.5588 14.8481 34.9547 214.8302 219.2130 91.7213 10.9693 64.0739 231.5526 182.3283 79.2404 207.4110 32.6041 47.8464 102.2252 130.5203 110.0483 246.7135 59.6584 43.9578 39.5136 57.4765 56.3536 124.5498 46.7581 67.7576 231.2634 117.8472 49.4355 157.8602 233.1738 143.1620 222.2246 211.6101 204.2444 65.5481 139.5464 180.0103 51.2655 159.1912 50.1021 39.0323 262.4774 199.7833 293.9657 184.3603 133.1951 52.5449 22.7379 289.6052 68.5134 70.9655 91.7334 273.2352 77.7652 78.8582 56.4911 26.7818 93.1675 129.4207 180.0618 42.5163 99.7777 103.1026 72.8482 181.8841 255.0104 214.9175 235.9084 108.5983 113.0201 39.9491 84.2365 149.3410 81.8700 261.9398 254.9947 76.2883 59.2328 
99.3003 86.8036 191.1283 130.2289 36.2640 77.2313 20.7518 92.1957 25.3631 85.0116 66.0099 15.8525 195.4619 56.3651 37.6381 79.8420 120.2816 70.6586 21.2276 29.1803 67.8319 30.0072 116.2886 29.7712 177.0580 96.8774 100.3862 24.0003 41.3937 126.2179 108.7631 88.5731 65.8986 12.5589 66.0221 86.3373 79.0580 97.3954 132.3805 33.3163 22.0893 29.0546 6.4320 9.9694 38.7067 6.6121 45.4672 117.7739 73.2548 28.6056 98.3535 152.9060 87.6602 149.7890 125.8991 112.2266 38.1254 83.1711 88.2243 26.8230 64.1431 38.4010 27.4409 123.4907 77.1473 190.4956 179.8957 71.6219 26.7255 2.5807 186.7490 14.0113 51.6848 61.9907 160.2376 34.8963 36.6418 39.6232 28.1949 13.7996 88.3418 149.8974 30.5367 6.5156 58.1455 38.4075 154.0528 164.6088 146.6437 144.6123 64.1005 68.7828 14.8083 39.3039 99.6211 39.3338 188.6931 153.3103 44.0294 11.7555 
134.0321 91.2141 207.8112 125.2682 44.2994 51.6763 23.5317 119.6921 33.4166 122.1079 41.1569 12.5733 211.4545 73.4352 57.3249 74.4810 131.1010 89.6624 31.8567 39.4479 74.3446 27.9237 81.1672 16.6518 158.7975 126.4773 65.8804 15.9092 44.2154 159.7537 130.6414 42.5544 112.3146 19.2315 50.0100 42.1514 91.5542 87.0440 167.1152 36.5785 26.0809 27.9716 19.7060 17.5654 64.9620 20.1559 44.9827 148.5109 78.2630 36.2275 112.9074 173.4073 108.4328 139.3356 143.0136 132.2820 48.7029 101.4087 122.6630 17.4386 73.8425 35.4819 30.1546 164.9592 113.9842 216.0744 146.8745 80.5327 36.9682 8.3943 200.8305 17.5890 51.3224 66.0872 202.0803 50.0248 52.8659 34.5685 21.5541 27.7908 83.9355 124.3382 30.2293 29.9824 71.5529 52.2729 141.3565 181.2010 153.9077 181.5421 78.4315 87.8549 19.0073 52.9945 88.9945 39.7825 191.9075 181.2334 52.4832 28.1608 
273.3870 52.9062 107.8738 242.3787 50.2406 242.2932 35.5923 324.0123 54.7056 191.4597 365.8425 95.8396 87.4291 147.9560 109.1554 100.3257 180.3030 156.7976 57.0535 52.7797 76.3930 136.2484 392.0973 108.9347 261.8994 178.8493 291.5343 70.9273 29.2999 147.6370 79.4047 358.3674 264.2083 36.3423 296.7888 350.2955 38.0243 136.3398 147.2323 43.5894 32.3534 34.2705 109.8005 109.6232 152.7880 85.2212 57.3094 138.1195 67.1513 127.3505 37.8696 41.2102 376.2619 259.9782 80.9835 101.4337 68.0221 77.8764 216.9843 194.7722 210.0915 53.9626 131.6304 197.9153 199.2996 51.2246 340.0920 97.3694 99.2810 41.8818 121.1850 148.1035 48.0491 30.5222 242.0483 180.7533 117.0416 81.2296 62.2367 244.8457 135.2087 297.3961 30.6620 237.2216 52.6605 115.1240 194.7830 66.9972 90.6283 267.8351 309.5625 184.7810 49.0630 65.8649 204.4627 111.0921 137.9869 89.0962 29.7191 115.9922 
265.6707 13.4850 64.8374 114.6123 59.0410 174.9163 20.9428 294.8229 42.1753 182.5068 278.9121 74.7662 63.7505 144.4160 95.7791 36.4765 93.3517 159.1711 53.7901 48.9739 38.1631 110.5168 294.3285 70.8660 113.7578 146.1652 184.9467 49.2747 10.7079 179.0411 118.2107 247.5585 231.0477 33.8600 231.8543 234.1780 59.0998 62.4260 176.7920 22.4468 21.8077 10.2899 82.7758 79.6391 129.0585 68.7036 18.8003 144.6156 25.5449 110.1836 71.3749 113.5303 325.9583 115.7125 73.7038 90.5058 73.9398 105.9662 217.1417 148.5917 134.7623 20.9682 109.5669 201.1726 178.6157 134.9470 185.6070 55.5643 90.5212 32.0828 52.9919 106.2881 8.2598 15.2151 277.2775 155.8826 110.8891 40.5475 36.5089 188.6685 54.2699 153.8044 6.4228 181.9231 69.2288 109.7623 80.0800 70.2891 21.7844 286.5466 262.6448 178.3059 33.5307 67.0510 101.4213 65.3449 4.3536 142.8559 40.4845 96.0827 
179.9744 73.7016 174.7787 70.3471 51.2655 66.7308 18.5190 177.1638 32.4719 140.2656 105.9257 30.4866 180.0965 98.3301 66.5525 49.0240 98.1100 115.1308 38.6116 41.6271 58.5304 51.6909 121.2851 11.2437 96.7061 124.0872 40.6646 17.3118 35.6431 172.9336 134.1647 63.5909 144.7782 23.6783 98.3079 44.9365 86.5119 57.0473 176.8186 28.2734 22.4018 18.7809 33.4103 28.3963 80.0276 33.1557 30.0276 149.5158 61.0806 59.5342 106.9349 166.6349 176.8747 75.8176 126.5679 120.4241 58.9066 108.5234 156.4684 55.4917 58.8121 21.8418 54.1914 177.8593 130.0340 205.4370 84.9333 64.4113 54.6078 13.7523 164.6462 33.7958 37.4977 55.1450 235.8147 83.4713 72.5066 15.1743 12.2191 73.9228 49.9295 58.7595 21.5896 71.4248 74.2660 71.9650 95.3236 158.3653 124.0498 222.8795 135.5839 119.1694 17.4301 57.9863 40.6432 24.2981 148.7629 179.6046 51.2043 48.0784 
193.2812 34.8402 80.0461 38.9267 47.3908 127.1928 5.7612 212.6855 20.7908 117.4067 188.4668 50.5510 91.3136 106.7785 57.2974 37.1611 15.2026 120.4580 35.0054 29.9776 13.9339 78.0982 214.0152 44.6048 95.3899 77.5991 124.6566 35.6897 14.2596 135.7240 98.3706 163.6760 142.9907 21.9295 162.6902 148.2418 52.5472 59.0270 131.8348 5.3981 9.0058 10.6181 47.5077 44.3451 76.0055 41.8551 10.6600 97.9508 18.2420 77.7693 67.0059 113.1203 231.3566 54.6179 61.3475 60.1788 56.4967 86.2792 155.6117 97.5633 56.0121 16.9112 76.9821 133.7946 108.3332 134.7352 141.7425 16.9171 64.2476 18.5500 69.7066 60.2961 19.3185 27.6915 215.3217 107.4544 78.1472 21.6206 26.4328 118.1104 27.4298 102.8086 10.5109 111.3240 54.1933 79.2721 84.4279 82.9495 58.4472 221.0470 184.0145 132.4198 14.7428 44.8412 49.0849 25.4368 76.8893 122.2748 32.6717 61.2025 
103.5304 66.8524 136.2128 118.0740 30.0395 118.0483 13.0862 124.5583 8.2976 32.7957 140.5105 35.5021 142.8099 60.5058 7.8465 75.6517 83.2014 70.4896 10.2980 9.5807 45.8446 55.1003 185.2800 46.0326 177.6708 32.6443 140.0403 35.2940 30.3916 76.7159 71.0152 151.3183 35.2511 6.3600 122.9305 143.3514 50.8169 99.1022 75.1705 22.4394 11.9187 26.0298 23.7904 25.7784 12.0361 17.5414 38.5872 56.3851 53.0822 47.1814 65.6741 109.0365 142.4861 141.9452 80.2515 63.0912 32.0804 56.8407 74.4204 68.4781 53.7025 36.7379 50.4631 53.1815 18.6097 133.6726 204.7607 45.1976 35.2410 8.5291 135.5608 39.3082 44.1235 46.6752 125.3570 60.5092 38.1281 41.3717 34.4763 70.8160 80.6131 166.0280 26.1073 63.4922 35.1665 42.6002 150.7939 116.1349 113.1743 131.1381 114.2824 77.5683 9.5082 17.2714 101.1022 37.0995 155.2742 98.7424 26.4747 28.1488 
140.8018 88.5441 202.5992 116.5560 45.3305 51.7911 22.5651 128.3329 32.8608 123.9532 49.9372 15.1975 206.5863 77.1473 58.0591 70.7058 125.3278 93.4677 32.6409 39.4760 71.6813 31.3935 84.6314 13.7289 149.5450 124.8958 59.0163 15.4008 42.8746 161.3459 130.9789 38.6016 115.8585 19.7523 56.5104 33.8126 90.6436 82.5323 168.0879 35.1459 25.3314 26.6012 20.5733 17.5360 66.2383 21.6317 42.6999 147.9834 75.5235 39.7401 111.8692 172.2887 118.7578 129.6891 140.2095 129.9872 50.1937 102.3496 127.4504 23.0872 69.3270 33.4557 33.7644 165.9970 115.2582 214.3163 136.9609 77.6251 39.5904 8.8013 195.1558 17.3267 49.2580 64.4104 206.9505 55.0058 55.6965 31.6621 19.9035 33.9736 78.7843 114.4115 28.9353 34.8604 71.8013 55.1824 134.5030 177.5870 149.3578 187.6853 87.0483 92.5557 18.2577 53.4582 81.6437 36.5659 185.4515 180.7087 52.1713 30.7949 
264.1925 66.2343 175.4726 91.0743 66.3737 111.5437 26.1132 271.5283 49.7527 207.6991 207.3688 57.7748 176.4997 142.4365 104.7180 20.4249 125.3355 161.3246 58.5760 59.8110 66.9412 87.8260 201.9324 41.1872 20.5561 181.1355 93.5238 29.0995 34.5043 225.3419 162.9884 155.5975 236.8642 36.3673 174.4009 143.5772 98.7991 11.2700 229.6090 34.2244 30.1953 11.4501 71.2496 66.2490 133.3938 62.2354 25.0085 196.6774 61.8733 96.3856 119.9289 183.0017 284.4107 73.7396 141.7405 146.6612 80.1539 135.4830 227.4526 113.4364 122.5191 9.7451 90.9398 247.6939 199.7759 225.1816 44.7058 81.6107 84.7115 28.1974 161.5127 84.5862 26.4442 51.7246 313.0739 138.4292 109.9456 19.3507 13.3104 153.4912 41.2199 42.8365 15.3026 150.3180 93.2948 107.2554 30.8389 162.4950 111.0510 302.9200 224.7057 172.8727 32.9170 81.2849 56.3721 53.9527 116.8451 212.3667 61.5083 86.6617 
